wavenumber,transmittance
4000.0,-0.0005729218248723234
3996.0,0.0004450142854904157
3992.0,0.0003460370543139794
3988.01,-0.0008639381396508294
3984.01,-0.0023237044345406775
3980.01,-0.00330221466546492
3976.01,-0.0035857737370013796
3972.02,-0.0031339436507053994
3968.02,-0.0021438020389602914
3964.02,-0.0013968757791331706
3960.02,-0.0015996497597370943
3956.03,-0.0024397014258161205
3952.03,-0.002945477802444616
3948.03,-0.0027905207599447025
3944.03,-0.002643010025796332
3940.04,-0.0029640787322723623
3936.04,-0.0033994771140405367
3932.04,-0.003573813915423671
3928.04,-0.003675756005826109
3924.05,-0.003786365759929931
3920.05,-0.0035023892088312204
3916.05,-0.002933849597403164
3912.05,-0.003101910737801337
3908.05,-0.004557891215293052
3904.06,-0.006232363805361689
3900.06,-0.006218835052791906
3896.06,-0.004446338488376132
3892.06,-0.0026868962585502266
3888.07,-0.0020866992930116445
3884.07,-0.0025533125307384465
3880.07,-0.0034673303453603777
3876.07,-0.004336356206368303
3872.08,-0.004815296520209666
3868.08,-0.004733746435979433
3864.08,-0.004435535353769332
3860.08,-0.004167292575592315
3856.09,-0.003488324257609968
3852.09,-0.0023302477757234062
3848.09,-0.001935663279799224
3844.09,-0.0030160497614176857
3840.1,-0.004335231424145718
3836.1,-0.003939328360469574
3832.1,-0.0020673522468260233
3828.1,-0.0009133786995501023
3824.11,-0.0010011968211423514
3820.11,-0.0008603468657666214
3816.11,0.0001472026967248789
3812.11,0.00025847087784116
3808.11,-0.0018744929084547628
3804.12,-0.005119015472580306
3800.12,-0.006569267169272836
3796.12,-0.005309977182097688
3792.12,-0.0033745258703250956
3788.13,-0.00219982356556795
3784.13,-0.0020775480867455936
3780.13,-0.0032413187078348645
3776.13,-0.0056999260778661165
3772.14,-0.008374885619921916
3768.14,-0.009571071503130874
3764.14,-0.009103914497522257
3760.14,-0.008620430497657226
3756.15,-0.009119008192264128
3752.15,-0.009452681252294587
3748.15,-0.007703648915477031
3744.15,-0.00440765800518349
3740.16,-0.0020585072727589077
3736.16,-0.0017842978403495202
3732.16,-0.0030591888851998496
3728.16,-0.004777334718033253
3724.16,-0.006012665904243258
3720.17,-0.006175383342681016
3716.17,-0.005063864136223959
3712.17,-0.003427515616344989
3708.17,-0.0026669541120062767
3704.18,-0.0033390931466374986
3700.18,-0.004586343995358522
3696.18,-0.005170560713064265
3692.18,-0.004438320932471776
3688.19,-0.0028638964739459913
3684.19,-0.0014672040581712193
3680.19,-0.0005465560649565466
3676.19,-3.052654066739872e-05
3672.2,-0.0004578682120018716
3668.2,-0.002447888563700122
3664.2,-0.005110768142100916
3660.2,-0.006913627238436558
3656.21,-0.006821225886494376
3652.21,-0.00471725793558945
3648.21,-0.002270610454361393
3644.21,-0.0013241310755009428
3640.21,-0.001711366644119994
3636.22,-0.002466823523954106
3632.22,-0.002602639238910488
3628.22,-0.0011199199607648104
3624.22,0.001838225183876335
3620.23,0.004499804297801409
3616.23,0.005010192246061168
3612.23,0.002993621036299075
3608.23,-0.0002977333148219802
3604.24,-0.003244425844824437
3600.24,-0.00505495420574489
3596.24,-0.005487586786810748
3592.24,-0.0044372693109722295
3588.25,-0.002731863651982008
3584.25,-0.0017322370252319645
3580.25,-0.0014980599207086707
3576.25,-0.0009675301700526092
3572.26,0.00021001061804208979
3568.26,0.001144148219946411
3564.26,0.001154503734826879
3560.26,0.0008141511544167463
3556.26,0.0005098877745238644
3552.27,-0.0005181387446357153
3548.27,-0.0025348723192726522
3544.27,-0.003928471808683581
3540.27,-0.0030318882615223406
3536.28,-0.0007462577660050457
3532.28,0.0005239807678966456
3528.28,-0.00023293453101214042
3524.28,-0.0017006048547108458
3520.29,-0.002219986085406105
3516.29,-0.0015678321270293164
3512.29,-0.0004051518768408677
3508.29,0.0006887072221757284
3504.3,0.0009899602713760473
3500.3,-0.0003303067096467594
3496.3,-0.0029889467023021324
3492.3,-0.005292279181268162
3488.31,-0.005659981615500998
3484.31,-0.004157509495823602
3480.31,-0.002278947882793612
3476.31,-0.0012559513163934758
3472.32,-0.0009715962090432348
3468.32,-0.00047106638370821485
3464.32,0.0008454969976003101
3460.32,0.0023337515997006336
3456.32,0.0025658140070824536
3452.33,0.0008986900118691286
3448.33,-0.001572337856868716
3444.33,-0.0030200671525388626
3440.33,-0.003013200126227878
3436.34,-0.0027334396696656153
3432.34,-0.0029577174153018223
3428.34,-0.0029847487051159398
3424.34,-0.0020221496883418353
3420.35,-0.000694002122214318
3416.35,-0.0002029283251620626
3412.35,-0.0005557737944233312
3408.35,-0.0007247536587820694
3404.36,-0.00031363392110331657
3400.36,-4.29359929438119e-05
3396.36,-0.0005523456086509807
3392.36,-0.001521576623037283
3388.37,-0.002257879679544994
3384.37,-0.002499037143018619
3380.37,-0.002417980305256867
3376.37,-0.002279151134042808
3372.37,-0.0023988585666941493
3368.38,-0.002813113216832092
3364.38,-0.002867039543613991
3360.38,-0.001881219051438967
3356.38,-0.00025880787783501876
3352.39,0.0007640896735955043
3348.39,0.000582948450074566
3344.39,-0.0002348682112023424
3340.39,-0.0009981135040305436
3336.4,-0.0016354396962028062
3332.4,-0.00202477108838383
3328.4,-0.0016149858750395308
3324.4,-0.00037999927706721943
3320.41,0.0005947001653207233
3316.41,0.0004150104675896949
3312.41,-0.0002657064769082574
3308.41,-0.00020705506421883556
3304.42,0.0005489230404215671
3300.42,0.0008371678950297233
3296.42,0.00023078036275645132
3292.42,-0.0005137153184869832
3288.42,-0.0008922028498188569
3284.43,-0.0014301165511280492
3280.43,-0.0024481327667426568
3276.43,-0.0031220408754955463
3272.43,-0.0026957019240326876
3268.44,-0.0017785089719121587
3264.44,-0.0015368467234011809
3260.44,-0.0021532651659280193
3256.44,-0.00288687197635187
3252.45,-0.0032963550249526354
3248.45,-0.003632793985229427
3244.45,-0.004056563294105447
3240.45,-0.004235446166294355
3236.46,-0.003879344778272494
3232.46,-0.0030076454662704964
3228.46,-0.0017542013351136772
3224.46,-0.0004415049223775455
3220.47,0.0003686748195467581
3216.47,0.00031732075397462807
3212.47,-0.00026454092066570476
3208.47,-0.000743403473221612
3204.47,-0.001013206809535215
3200.48,-0.0014101386302975763
3196.48,-0.0018836704209272252
3192.48,-0.0018436240822675212
3188.48,-0.0009673127914322493
3184.49,0.00031030487037116535
3180.49,0.0012884434888129257
3176.49,0.0015454710370634726
3172.49,0.000958734690683854
3168.5,-0.0003393780196049801
3164.5,-0.0018422659544447008
3160.5,-0.002842045828011139
3156.5,-0.003115282417189756
3152.51,-0.0031329002447993285
3148.51,-0.003315372728272524
3144.51,-0.0034210084622465107
3140.51,-0.002954733905144797
3136.52,-0.001976454682261974
3132.52,-0.0010478705508342372
3128.52,-0.0005427361961974885
3124.52,-0.000396621098174241
3120.53,-0.000433157574891836
3116.53,-0.0006045505070323032
3112.53,-0.0008239189284262281
3108.53,-0.0008634645739027881
3104.53,-0.0005986337916350026
3100.54,-0.00018643134480049225
3096.54,0.00013984856838715603
3092.54,0.0003335279610537011
3088.54,0.00047073713751804176
3084.55,0.0004565912915920172
3080.55,2.4941367492680574e-05
3076.55,-0.0008367064335523956
3072.55,-0.001645047205275507
3068.56,-0.001823233286626575
3064.56,-0.001381241549403282
3060.56,-0.0010168438789729672
3056.56,-0.0013417848287828305
3052.57,-0.002143259790869582
3048.57,-0.002664392380292508
3044.57,-0.00254040353456164
3040.57,-0.0021128365103564705
3036.58,-0.0017688458244751529
3032.58,-0.0014297366730963998
3028.58,-0.0009312181561178997
3024.58,-0.0005298769525899765
3020.58,-0.0006157432552793905
3016.59,-0.001046641920290491
3012.59,-0.0011762129710676658
3008.59,-0.0006379999806707527
3004.59,0.00021049811829894474
3000.6,0.0007299795219312367
2996.6,0.0006363409679576365
2992.6,9.722802338811921e-05
2988.6,-0.000599603980845694
2984.61,-0.001196163931704469
2980.61,-0.0014339933767987727
2976.61,-0.0012196343029097444
2972.61,-0.0008478020472161221
2968.62,-0.000841111112632788
2964.62,-0.0013874597552316179
2960.62,-0.001996480841298352
2956.62,-0.0019629696502174005
2952.63,-0.0011778774506240705
2948.63,-0.00029034090590816
2944.63,1.6348385368605167e-05
2940.63,-0.00026155611926976266
2936.63,-0.0005941052681825612
2932.64,-0.0006767865790972837
2928.64,-0.0007992123067172438
2924.64,-0.0013011532458753763
2920.64,-0.0019195580675421713
2916.65,-0.002017863042911538
2912.65,-0.0014496792849782484
2908.65,-0.0007497032794653754
2904.65,-0.0005173773053734526
2900.66,-0.000919021361890294
2896.66,-0.0016487204748539964
2892.66,-0.0022446704522747813
2888.66,-0.0024204165907028685
2884.67,-0.0022330396396208407
2880.67,-0.001978046148890666
2876.67,-0.0018446513178484644
2872.67,-0.0017394297407147916
2868.68,-0.001539199165724021
2864.68,-0.00138172461514391
2860.68,-0.0014755975697035427
2856.68,-0.001685593730969528
2852.68,-0.0016313210728562612
2848.69,-0.0012870199463570883
2844.69,-0.0010824919562127451
2840.69,-0.0012637257274010826
2836.69,-0.0015506490895875193
2832.7,-0.001572962511335605
2828.7,-0.0013407496789537227
2824.7,-0.0010886048313097432
2820.7,-0.000855358794454135
2816.71,-0.000520357385140011
2812.71,-0.00015818902266174118
2808.71,-2.5486426348398195e-05
2804.71,-0.00021676386467542935
2800.72,-0.0005773223962029959
2796.72,-0.0009689223887437681
2792.72,-0.0013449358103108375
2788.72,-0.0015552388145455953
2784.73,-0.0013977189752246383
2780.73,-0.000977870099320822
2776.73,-0.0007376876548170706
2772.73,-0.0009305636209264903
2768.74,-0.0012609893353393428
2764.74,-0.0012879721690436591
2760.74,-0.0010448923342384236
2756.74,-0.000984126547842119
2752.74,-0.0013406860755612849
2748.75,-0.0018335090685848686
2744.75,-0.002037051261892856
2740.75,-0.001862163737807946
2736.75,-0.0015967635381730057
2732.76,-0.0015463121886730032
2728.76,-0.0017469694576962595
2724.76,-0.001988842537395713
2720.76,-0.002044454046435762
2716.77,-0.001859944903328768
2712.77,-0.00154587835087055
2708.77,-0.0012368010719035494
2704.77,-0.0009987429871853761
2700.78,-0.0008953138880398954
2696.78,-0.001029730853642793
2692.78,-0.001395974731063981
2688.78,-0.0017528914191978588
2684.79,-0.0017959479057194736
2680.79,-0.0014728521941410357
2676.79,-0.001038581043298744
2672.79,-0.0007792853032813916
2668.79,-0.0007508944168476448
2664.8,-0.0007973031334378641
2660.8,-0.0007351553375720869
2656.8,-0.0005248323994494075
2652.8,-0.0003455517813212418
2648.81,-0.0004765572567950986
2644.81,-0.0009503952600542557
2640.81,-0.001348728797659124
2636.81,-0.0012230903715319034
2632.82,-0.0007679011944365093
2628.82,-0.000709867600968863
2624.82,-0.0013207418043946417
2620.82,-0.001949478891332471
2616.83,-0.0019384252999586915
2612.83,-0.0015887741803102431
2608.83,-0.0016357198530755285
2604.83,-0.0020074313670595026
2600.84,-0.0019283571893949111
2596.84,-0.00124914310536451
2592.84,-0.0008197751311138058
2588.84,-0.0012648440060098105
2584.84,-0.0023198458160630935
2580.85,-0.003361447276390719
2576.85,-0.0038528878842393707
2572.85,-0.0032762626466696842
2568.85,-0.001514015665383284
2564.86,0.0004677569537803039
2560.86,0.0012482617154581789
2556.86,0.0006251273111525066
2552.86,-0.00032780964031695097
2548.87,-0.0009592550612649468
2544.87,-0.0017153493731158435
2540.87,-0.002869034861270395
2536.87,-0.003889363783590877
2532.88,-0.004377522153206773
2528.88,-0.004659024848803442
2524.88,-0.004923438829659934
2520.88,-0.004652792978076653
2516.89,-0.003737870259034256
2512.89,-0.0032631539108885594
2508.89,-0.0038746585872429396
2504.89,-0.0044659712834484
2500.89,-0.0035923612453540223
2496.9,-0.0016726173504739467
2492.9,-0.00019053578341122782
2488.9,0.000403714387110174
2484.9,0.0008864997851567968
2480.91,0.0016310031582719995
2476.91,0.0017205087400370897
2472.91,0.00019519962468167232
2468.91,-0.0024161812254392795
2464.92,-0.0044740831673982535
2460.92,-0.005276784053966212
2456.92,-0.005471246579489941
2452.92,-0.005851503725335714
2448.93,-0.006243537254307509
2444.93,-0.00552507907544279
2440.93,-0.003096160214989295
2436.93,2.2807711372052526e-05
2432.94,0.002091842608359659
2428.94,0.002106877636420247
2424.94,2.5937129778314593e-05
2420.94,-0.0030502856670999697
2416.95,-0.005194598165893924
2412.95,-0.005183341914926539
2408.95,-0.0036620946338490556
2404.95,-0.00266325147856493
2400.95,-0.0031828898871369108
2396.96,-0.004038308717351386
2392.96,-0.0038882616026396292
2388.96,-0.0031283342541374138
2384.96,-0.002927420266938078
2380.97,-0.0032656065944051934
2376.97,-0.0030672948191346862
2372.97,-0.0020072224420138894
2368.97,-0.0011503290690974832
2364.98,-0.0011096424654335412
2360.98,-0.0009697599200758134
2356.98,-0.00017183775380673385
2352.98,0.0003025316631319765
2348.99,-0.00035259505351967104
2344.99,-0.0017599665673832198
2340.99,-0.002758030285064987
2336.99,-0.0025316489727886687
2333.0,-0.00149792378686823
2329.0,-0.0005884224128494458
2325.0,-0.0003938706830829595
2321.0,-0.001098217094006015
2317.0,-0.0024594912117481505
2313.01,-0.003897583337486288
2309.01,-0.005157584611433084
2305.01,-0.0066887586082477616
2301.01,-0.008500504666867107
2297.02,-0.009334663770219647
2293.02,-0.007985737331502834
2289.02,-0.004934141028869419
2285.02,-0.0017825198831074103
2281.03,0.0002376235144321721
2277.03,0.000162775844923407
2273.03,-0.003343419581316235
2269.03,-0.009197482389958746
2265.04,-0.010858725702049236
2261.04,-0.005152039553154896
2257.04,0.0009841276757775925
2253.04,-0.0003408966447379405
2249.05,-0.00894850193822104
2245.05,-0.013240027634626058
2241.05,-0.006527108880668272
2237.05,0.003025036673505323
2233.05,0.005377650086617899
2229.06,-0.00031568017138404187
2225.06,-0.005853188599034954
2221.06,-0.007326691896237752
2217.06,-0.0033832376844806274
2213.07,0.002463401319362535
2209.07,0.004439767923561212
2205.07,-0.0019125501168521927
2201.07,-0.013830805732370407
2197.08,-0.01993712221886654
2193.08,-0.01762705373076236
2189.08,-0.014788111621635732
2185.08,-0.007899667280484133
2181.09,0.011263098832949523
2177.09,0.03505019506060356
2173.09,0.04329174650504012
2169.09,0.0248839518190254
2165.1,-0.0015666730402739133
2161.1,-0.012135396981979256
2157.1,-0.0059098717048005
2153.1,0.0035791757153868006
2149.11,0.006233438912896227
2145.11,0.0008634899252191922
2141.11,-0.009352837415467018
2137.11,-0.021385322873152795
2133.11,-0.02766263137452276
2129.12,-0.02433937186325162
2125.12,-0.01862066844054382
2121.12,-0.014958299541240125
2117.12,-0.012828704423785002
2113.13,-0.010861901130295787
2109.13,-0.009111424457839868
2105.13,-0.006444526386694793
2101.13,-0.0018770688392190295
2097.14,0.0024853634466499666
2093.14,0.004098981620417566
2089.14,0.0012431721360320397
2085.14,-0.004581439144098255
2081.15,-0.007693153811468073
2077.15,-0.006855363336368523
2073.15,-0.0071432956242819465
2069.15,-0.011202249047687133
2065.16,-0.010339976622582318
2061.16,-0.004911469173592376
2057.16,-0.0006775171163706263
2053.16,-0.002383917949362575
2049.16,-0.008178048828363121
2045.17,-0.007646403428591785
2041.17,-0.000827468325645022
2037.17,-0.008588921305119238
2033.17,-0.018302108968605776
2029.18,-0.014253893529236781
2025.18,0.012041852796986973
2021.18,0.02851346238886839
2017.18,0.023139383394838377
2013.19,0.0057003723107469425
2009.19,-0.01690439735255261
2005.19,-0.026948327091856565
2001.19,-0.02031393227688203
1997.2,-0.01525248603303843
1993.2,-0.008293829500168083
1989.2,0.0010116712760760331
1985.2,0.004872275615663979
1981.21,0.002147084563797211
1977.21,-0.0058218157556158955
1973.21,-0.0021182504890717518
1969.21,0.011645484525295619
1965.21,0.01603554841647619
1961.22,0.011310533455506828
1957.22,0.010459152442824438
1953.22,0.012567744025764596
1949.22,0.012020551520868762
1945.23,0.009134384963730566
1941.23,0.0038271724797031862
1937.23,0.0002542783118794004
1933.23,-0.0038882173300234138
1929.24,-0.008539012921267457
1925.24,-0.00928087250697534
1921.24,-0.006761577749643856
1917.24,-0.00331537937488997
1913.25,3.6665718302067e-06
1909.25,0.001541818912812096
1905.25,0.0016570621166913716
1901.25,0.0012191323568999327
1897.26,0.0003760605293283645
1893.26,-0.0004756522304927652
1889.26,-0.0011381195211231877
1885.26,-0.0016188262341393321
1881.26,-0.0012701014826956266
1877.27,0.0002931216344460147
1873.27,0.002191570147747845
1869.27,0.0032257323749446927
1865.27,0.002522890030403192
1861.28,0.0003369532874873991
1857.28,-0.002311887246288995
1853.28,-0.004542217103643091
1849.28,-0.005040020657843552
1845.29,-0.0033660302979177533
1841.29,-0.0014184135942829105
1837.29,-0.0008098878883810153
1833.29,-0.0014357919308684852
1829.3,-0.002233072694631583
1825.3,-0.0026595918912193156
1821.3,-0.0029190915828640174
1817.3,-0.0029288266085119845
1813.31,-0.002352645800678874
1809.31,-0.0013881847818439088
1805.31,-0.0006643668203370331
1801.31,-0.0006284684752079666
1797.32,-0.0011645290535942405
1793.32,-0.0017728729707976924
1789.32,-0.002171249287920083
1785.32,-0.002397280636116321
1781.32,-0.0025600153528444612
1777.33,-0.002691782733003395
1773.33,-0.002718090273806251
1769.33,-0.002572125477521786
1765.33,-0.002410965852655696
1761.34,-0.002459761259478481
1757.34,-0.002669967939391482
1753.34,-0.0027126327196281158
1749.34,-0.0024143560581159395
1745.35,-0.002102393554631553
1741.35,-0.00209459630077696
1737.35,-0.002288227971242132
1733.35,-0.0024000512231456598
1729.36,-0.002466324738297272
1725.36,-0.0026800668230711573
1721.36,-0.002977476895901808
1717.36,-0.0031098202075671155
1713.37,-0.0030944842067381845
1709.37,-0.0031217316460554743
1705.37,-0.0030594509709040603
1701.37,-0.0026228476571002104
1697.37,-0.0020800377422033386
1693.38,-0.0019466283870170885
1689.38,-0.002153101559869426
1685.38,-0.0023089869920532237
1681.38,-0.002311555984911544
1677.39,-0.002389279939564478
1673.39,-0.0025210657106696805
1669.39,-0.002405545720745569
1665.39,-0.0020829315316107863
1661.4,-0.0019615650503455244
1657.4,-0.0022202288337102956
1653.4,-0.0025031077010155647
1649.4,-0.0023738689417147894
1645.41,-0.002081981810443332
1641.41,-0.0019745720166834853
1637.41,-0.0019249530010721516
1633.41,-0.0017066073723480321
1629.42,-0.0014472764935949062
1625.42,-0.0014140993546082454
1621.42,-0.0015752641699065665
1617.42,-0.0016368684090662883
1613.42,-0.0014627836227937717
1609.43,-0.001198755142366126
1605.43,-0.0009952275251535435
1601.43,-0.0008682147774964454
1597.43,-0.0007648406190002262
1593.44,-0.0006697701411813732
1589.44,-0.0006619651478012384
1585.44,-0.0008601508077862629
1581.44,-0.0012816180117822668
1577.45,-0.0017396428472606304
1573.45,-0.001996773647671714
1569.45,-0.0021069430283689925
1565.45,-0.0023052053242585257
1561.46,-0.002569814302664845
1557.46,-0.0025756403826828474
1553.46,-0.002356742755284092
1549.46,-0.0023443687843544623
1545.47,-0.00270031013988541
1541.47,-0.003081753477528263
1537.47,-0.003066331515621026
1533.47,-0.002919343885835835
1529.47,-0.0030176472177234244
1525.48,-0.003309381727869833
1521.48,-0.0035022412067059264
1517.48,-0.0035528560438320873
1513.48,-0.003622090788898805
1509.49,-0.003610209125794818
1505.49,-0.003328275207668025
1501.49,-0.00296023979005732
1497.49,-0.002742934345483066
1493.5,-0.0025663786478086993
1489.5,-0.0022352181093735794
1485.5,-0.001882551583590175
1481.5,-0.0017678180377200083
1477.51,-0.0018580868353236689
1473.51,-0.001836477996786659
1469.51,-0.001575236224944041
1465.51,-0.001383740612552459
1461.52,-0.0015046227935081328
1457.52,-0.001726404891475498
1453.52,-0.0016469819863570722
1449.52,-0.0013416017177358879
1445.53,-0.0011579024721181002
1441.53,-0.0012179518533144966
1437.53,-0.0013548210856753175
1433.53,-0.0013945975629462155
1429.53,-0.0014160962553250883
1425.54,-0.0015338617279504773
1421.54,-0.0016314988492150304
1417.54,-0.0015147078659565804
1413.54,-0.0012606473874146576
1409.55,-0.001106867257174037
1405.55,-0.0011116350371139492
1401.55,-0.0011059183143189346
1397.55,-0.0009718346722079201
1393.56,-0.0008567391568251973
1389.56,-0.0009410276683886246
1385.56,-0.0011439422297067142
1381.56,-0.0012631418801108845
1377.57,-0.0012523840378548244
1373.57,-0.0012354141992782122
1369.57,-0.0012793723924872365
1365.57,-0.001287530442474943
1361.58,-0.001163416486013962
1357.58,-0.0009713651002594065
1353.58,-0.000853233360859035
1349.58,-0.00086295065645089
1345.58,-0.000942613060953459
1341.59,-0.0009765280805964784
1337.59,-0.0008779957776477102
1333.59,-0.0006873809134820798
1329.59,-0.000558000561926391
1325.6,-0.0006058885232518755
1321.6,-0.0007718066014336889
1317.6,-0.0008765653933135437
1313.6,-0.0008325090845674982
1309.61,-0.000725489610112084
1305.61,-0.0006636420897784172
1301.61,-0.0006447640925301239
1297.61,-0.0006107942552683946
1293.62,-0.0005541893855387482
1289.62,-0.0005190400322235771
1285.62,-0.0005303849791810989
1281.62,-0.000568575916741638
1277.63,-0.0005980834683936003
1273.63,-0.0006002371590776451
1269.63,-0.0005866258140715498
1265.63,-0.0005811541185768178
1261.63,-0.0005784973960393174
1257.64,-0.0005428125645485014
1253.64,-0.0004740128862315283
1249.64,-0.0004298518197428035
1245.64,-0.0004416595098334431
1241.65,-0.0004559550450775394
1237.65,-0.00041979282588578364
1233.65,-0.00037936683379359993
1229.65,-0.0004125221349589916
1225.66,-0.0004991183182127466
1221.66,-0.0005639524823317031
1217.66,-0.0006188812974304888
1213.66,-0.0007385595886803114
1209.67,-0.0008944218193714294
1205.67,-0.0009465416828701575
1201.67,-0.000837496548105543
1197.67,-0.0006818517716203328
1193.68,-0.0006070682924459292
1189.68,-0.0006004161010484107
1185.68,-0.0005760840821324952
1181.68,-0.0005059876543772563
1177.68,-0.0004204652838805801
1173.69,-0.0003509362644204919
1169.69,-0.0003373692449930489
1165.69,-0.0004267579237085046
1161.69,-0.0005922689408778309
1157.7,-0.0007065957181832691
1153.7,-0.0006657574729588735
1149.7,-0.0005109429280093648
1145.7,-0.00037708190866612447
1141.71,-0.00034968848976995134
1137.71,-0.0004167731195122505
1133.71,-0.0005120885717755095
1129.71,-0.00055597683005096
1125.72,-0.0004962395758874009
1121.72,-0.00036649239647759354
1117.72,-0.0002808711306679677
1113.72,-0.00031533426781266377
1109.73,-0.0004223170918567777
1105.73,-0.000508782625718509
1101.73,-0.0005551258569816931
1097.73,-0.0005976689523115287
1093.74,-0.0006333348682676174
1089.74,-0.0006262404865160085
1085.74,-0.000592481814153301
1081.74,-0.0005958244784603372
1077.74,-0.0006452402103854158
1073.75,-0.000655409898535038
1069.75,-0.0005454378380613205
1065.75,-0.0003515899566876814
1061.75,-0.0002016053574308939
1057.76,-0.0001877579649607831
1053.76,-0.0002933363674650285
1049.76,-0.00044977210161239176
1045.76,-0.0006338666362596143
1041.77,-0.0008507684268499062
1037.77,-0.0010355664833182213
1033.77,-0.0010609955064457414
1029.77,-0.0008814912601049583
1025.78,-0.0006032852693652628
1021.78,-0.0003637201223409472
1017.78,-0.00020237025282200658
1013.78,-0.00011422342806624165
1009.79,-0.00014351466974298584
1005.79,-0.00030847476028689316
1001.79,-0.0004951114059718059
997.79,-0.0005590666149298276
993.79,-0.0005049290165683414
989.8,-0.0004613749196082246
985.8,-0.0004927437484942963
981.8,-0.0005414086230461437
977.8,-0.0005372062251678349
973.81,-0.0004554248954857321
969.81,-0.00029837753983818783
965.81,-0.0001350266047839373
961.81,-0.00011636202356845369
957.82,-0.0003012157718106023
953.82,-0.0004955402812978956
949.82,-0.00046167220974074923
945.82,-0.0002620430647333021
941.83,-0.0002002875618960401
937.83,-0.0004054870518917064
933.83,-0.0007064397614911803
929.83,-0.0009410435203396168
925.84,-0.0011412642433227286
921.84,-0.0013566754187221575
917.84,-0.0015149291632951378
913.84,-0.001543719023872773
909.84,-0.0014258785071514495
905.85,-0.0010541191526544757
901.85,-0.0002454031417394358
897.85,0.000934241776144039
893.85,0.002050305543336584
889.86,0.0026685181694524325
885.86,0.0026056120720086054
881.86,0.0019419267094103567
877.86,0.0010713707609034087
873.87,0.0005744505679428198
869.87,0.000677073526908105
865.87,0.0009592818935283171
861.87,0.0010031906256508087
857.88,0.0010607700179377387
853.88,0.001326951146129904
849.88,0.0011606254078321424
845.88,8.143704867071917e-05
841.89,-0.0008391973955198288
837.89,-0.00019616988424509584
833.89,0.0012496975442784152
829.89,0.0011273717752520497
825.89,-0.0005198919837691067
821.9,-0.0012082554277059987
817.9,-0.00012278834400683756
813.9,0.0005701368628865006
809.9,-0.0004994605541730401
805.91,-0.001176926636051262
801.91,0.001000833002103928
797.91,0.004022430833781464
793.91,0.004568218177896569
789.92,0.0026167468299322857
785.92,0.00022171051050952703
781.92,-0.0009122470578207585
777.92,-0.00046079617824300843
773.93,0.001588659644651157
769.93,0.003956545725047464
765.93,0.004133379650333695
761.93,0.0032499129511222896
757.94,0.008260869578413679
753.94,0.018185128344279464
749.94,0.01970421487091389
745.94,0.013778138047584718
741.95,0.005185375484560183
737.95,-0.010833491742085394
733.95,-0.03206419816054856
729.95,-0.058662105703002655
725.95,-0.08194301294933601
721.96,-0.07078226932660286
717.96,-0.050521165533173124
713.96,-0.02187477504488509
709.96,-0.00749936133982757
705.97,-0.012525984545608737
701.97,0.02650005878596544
697.97,0.06973019495885428
693.97,0.11034920185415494
689.98,0.15935946755758604
685.98,0.21876252073949287
681.98,0.18413176968275802
677.98,0.1502909178653334
673.99,0.07705756425699252
669.99,0.10958187049408076
665.99,-0.10108455896635218
661.99,-0.0414385563690437
658.0,-0.015783239287258125
654.0,-0.3016169839339943
650.0,-0.26561982124525013
