wavenumber,transmittance
4000.0,-0.000708578242800981
3996.0,0.0001745446453783574
3992.0,-2.169074812464199e-05
3988.01,-0.0012318216003342818
3984.01,-0.002575357301805271
3980.01,-0.0033417794449964885
3976.01,-0.003478489522475861
3972.02,-0.003185911319077015
3968.02,-0.002700703716620669
3964.02,-0.002485199743651509
3960.02,-0.0028788153060516916
3956.03,-0.00352593404803353
3952.03,-0.0036917393264627564
3948.03,-0.0032775066547547364
3944.03,-0.002965792023020119
3940.04,-0.0031306132463294343
3936.04,-0.0034399791497458053
3932.04,-0.003636926755590854
3928.04,-0.003953493346586531
3924.05,-0.004374892383002723
3920.05,-0.004326417894118681
3916.05,-0.0038022731566398683
3912.05,-0.0038552349097165568
3908.05,-0.005133939240853543
3904.06,-0.006650568471564229
3900.06,-0.006546874092441264
3896.06,-0.004746219591177682
3892.06,-0.002968445475930778
3888.07,-0.002317109631287886
3884.07,-0.002724008947415575
3880.07,-0.0036732528557336785
3876.07,-0.004771883157305952
3872.08,-0.00561474089788581
3868.08,-0.0057421742008876625
3864.08,-0.005265035732770428
3860.08,-0.004570467172090433
3856.09,-0.0035934005875040555
3852.09,-0.0025235672244320996
3848.09,-0.0024396658782389244
3844.09,-0.0036995460230493933
3840.1,-0.004926809429058694
3836.1,-0.004311859626288158
3832.1,-0.0023916564722231515
3828.1,-0.001439648209139107
3824.11,-0.0017406487461734336
3820.11,-0.0015005128905550894
3816.11,-8.564084529925145e-05
3812.11,0.00028868920585527533
3808.11,-0.0020251600029243025
3804.12,-0.005727869145707366
3800.12,-0.007439479266406777
3796.12,-0.006066785505601166
3792.12,-0.003974308955103889
3788.13,-0.0028092337864549823
3784.13,-0.002700418449838607
3780.13,-0.003665941059558999
3776.13,-0.005836646142370509
3772.14,-0.008462797860225347
3768.14,-0.009953370479412683
3764.14,-0.009877012745662583
3760.14,-0.009619105617810252
3756.15,-0.010149691521406027
3752.15,-0.010391058988013537
3748.15,-0.008492143640162616
3744.15,-0.005107776443216223
3740.16,-0.0028423610295869838
3736.16,-0.002737407742371476
3732.16,-0.003990202530672715
3728.16,-0.005335556994975699
3724.16,-0.006021258423789629
3720.17,-0.005824583469000082
3716.17,-0.004844381396750659
3712.17,-0.0038137833665422504
3708.17,-0.003657156329718163
3704.18,-0.0043927625529682195
3700.18,-0.005155080636646241
3696.18,-0.005094805475282289
3692.18,-0.003909669834933039
3688.19,-0.002171787272938832
3684.19,-0.0007864397158425212
3680.19,2.0942685959031073e-05
3676.19,0.0003196050394443647
3672.2,-0.0002966707187967635
3668.2,-0.002252727080082157
3664.2,-0.004790002522304471
3660.2,-0.006644388046726863
3656.21,-0.0068202793517850606
3652.21,-0.004918984173797893
3648.21,-0.0022963785207461783
3644.21,-0.0010137334863008682
3640.21,-0.00131955332963623
3636.22,-0.0023560740730337497
3632.22,-0.002992685895109474
3628.22,-0.0019314029389521075
3624.22,0.0009572364043780982
3620.23,0.003895723947489027
3616.23,0.004786331858985494
3612.23,0.0029867790376925146
3608.23,-0.00027417837591393835
3604.24,-0.003143379786756918
3600.24,-0.00471090877139167
3596.24,-0.004915037003778994
3592.24,-0.003940130372157005
3588.25,-0.0027018994804466645
3584.25,-0.0023504099132220313
3580.25,-0.0027128190547202873
3576.25,-0.0026046795940320258
3572.26,-0.0014757823708875669
3568.26,-6.089802556119793e-05
3564.26,0.0006755538264332862
3560.26,0.0007190129864974496
3556.26,0.00028681876101570324
3552.27,-0.0009926486456200833
3548.27,-0.0029623642895432105
3544.27,-0.004065568741047272
3540.27,-0.0030419618680614757
3536.28,-0.0009583270757504006
3532.28,-1.2203582485671833e-05
3528.28,-0.0009698609827217454
3524.28,-0.002459945087725691
3520.29,-0.0028789608825969645
3516.29,-0.002012882758662197
3512.29,-0.0005319255216211531
3508.29,0.0008410242706010167
3504.3,0.0011950873207023603
3500.3,-0.00028615009498429695
3496.3,-0.0031128431078575425
3492.3,-0.005450161323264641
3488.31,-0.005776757579975345
3484.31,-0.004315990666427394
3480.31,-0.0026117913319452226
3476.31,-0.0017849877184944536
3472.32,-0.0016049701214308713
3468.32,-0.001096016729082772
3464.32,0.0002862547235005714
3460.32,0.0018052501061095244
3456.32,0.0019470146415075979
3452.33,6.95872592626824e-05
3448.33,-0.002538690979809083
3444.33,-0.003765386893355978
3440.33,-0.0031511813170055987
3436.34,-0.0022733650208091745
3432.34,-0.0024034019815174002
3428.34,-0.0028637762392157663
3424.34,-0.00232029740448928
3420.35,-0.0009251162067713017
3416.35,-5.25404411081755e-05
3412.35,-0.0002778253735310522
3408.35,-0.0008098276999184654
3404.36,-0.0009355285233726802
3400.36,-0.0009575746685045717
3396.36,-0.0014341600048937196
3392.36,-0.002260365023282898
3388.37,-0.0029486648457703185
3384.37,-0.00328311581300802
3380.37,-0.003345224525878309
3376.37,-0.0032652207727760295
3372.37,-0.003305637206685014
3368.38,-0.00359969058319315
3364.38,-0.0036456554364963805
3360.38,-0.0027390411548957466
3356.38,-0.0010762919523629485
3352.39,0.00017918480841150986
3348.39,0.00020820798786962613
3344.39,-0.0006443402572206871
3340.39,-0.0016182926883406025
3336.4,-0.002391474118335639
3332.4,-0.0027312314949162722
3328.4,-0.002171170495599658
3324.4,-0.0007457704825073893
3320.41,0.0004984257165581854
3316.41,0.0006407063990948125
3312.41,0.00019185292241807812
3308.41,0.0002839722601578818
3304.42,0.0008994431567197085
3300.42,0.0009602926757294542
3296.42,0.00010175762727229248
3292.42,-0.0008734355288637276
3288.42,-0.0014195391477202029
3284.43,-0.002043065065063306
3280.43,-0.0030381770001085976
3276.43,-0.0035082367777652737
3272.43,-0.0027052245713967086
3268.44,-0.0014755951675705808
3264.44,-0.0012696748410486146
3260.44,-0.0022364833009173592
3256.44,-0.0032754441276450917
3252.45,-0.0036926420305063204
3248.45,-0.003885268078358945
3244.45,-0.004297460090661237
3240.45,-0.004639384343875248
3236.46,-0.004450017593618319
3232.46,-0.0036375041780614477
3228.46,-0.0023409304604059917
3224.46,-0.0008817715406633087
3220.47,0.00014692499096061122
3216.47,0.0002430239484695329
3212.47,-0.0003601402080581311
3208.47,-0.0008827024280796862
3204.47,-0.0009842438959208784
3200.48,-0.0010470807602767094
3196.48,-0.0013531452191577465
3192.48,-0.001518426027326624
3188.48,-0.001033646803173501
3184.49,8.195928801297875e-06
3180.49,0.0010180679389922014
3176.49,0.0014117144714818298
3172.49,0.0008570137242900379
3168.5,-0.0005797670892925309
3164.5,-0.00229456699812796
3160.5,-0.0033991645216359663
3156.5,-0.0035495266787349
3152.51,-0.003284296635104934
3148.51,-0.0032345159763593335
3144.51,-0.00330170661134816
3140.51,-0.0029262420244389638
3136.52,-0.002012789954604486
3132.52,-0.0010836743023293148
3128.52,-0.0006017716543624765
3124.52,-0.000570101444527238
3120.53,-0.0007782789172136115
3116.53,-0.001094338664207058
3112.53,-0.0013692436801019813
3108.53,-0.0013686367314713372
3104.53,-0.0010301933423979522
3100.54,-0.0006075711638014632
3096.54,-0.0003664726917190026
3092.54,-0.00026684631259904306
3088.54,-0.00013240466311681225
3084.55,-8.566957979372216e-05
3080.55,-0.0005053324257924328
3076.55,-0.001431309594390863
3072.55,-0.002268747688484979
3068.56,-0.002338670466059638
3064.56,-0.0016930129034238247
3060.56,-0.0011610464371377425
3056.56,-0.0014205961025828178
3052.57,-0.002213648661025298
3048.57,-0.002719016031314316
3044.57,-0.002561874891175113
3040.57,-0.0021116965941746224
3036.58,-0.001774180049007584
3032.58,-0.0014714364011845999
3028.58,-0.0010318037485124347
3024.58,-0.0006989683410306886
3020.58,-0.0008526364315261916
3016.59,-0.0013399725667493426
3012.59,-0.00148900214612876
3008.59,-0.0009089451168300523
3004.59,2.1784314273940856e-05
3000.6,0.0005957162876136047
2996.6,0.0004837500794444053
2992.6,-0.00010848829590751965
2988.6,-0.0008128058786244131
2984.61,-0.0013409283003465466
2980.61,-0.0014933172488575883
2976.61,-0.0012720982626334531
2972.61,-0.001017664781542714
2968.62,-0.0011994629790352466
2964.62,-0.001861855989380378
2960.62,-0.0023883447760109366
2956.62,-0.0021116845885388587
2952.63,-0.0011269257106796611
2948.63,-0.0002626824793305243
2944.63,-0.00017267271529414248
2940.63,-0.0006772744899298569
2936.63,-0.0011146224660427328
2932.64,-0.0011888075202533572
2928.64,-0.0012501458944633012
2924.64,-0.0016593751681823789
2920.64,-0.002172785108816693
2916.65,-0.0022061541086214683
2912.65,-0.0016242190018987723
2908.65,-0.0008945948314360725
2904.65,-0.0005802517199057161
2900.66,-0.0009182480687487936
2896.66,-0.0016711053249784257
2892.66,-0.002335606482251721
2888.66,-0.0025501605206872282
2884.67,-0.0023913179203516434
2880.67,-0.0022325853377005694
2876.67,-0.002249476946594681
2872.67,-0.002227732458417966
2868.68,-0.0019641749249620357
2864.68,-0.0016481850338028981
2860.68,-0.0016057322718162053
2856.68,-0.0017930394016054568
2852.68,-0.001854913948642882
2848.69,-0.001686797472539375
2844.69,-0.0015544059228021784
2840.69,-0.001602470977432105
2836.69,-0.0016497081434993885
2832.7,-0.0015465526519720706
2828.7,-0.001406446332609617
2824.7,-0.0013413056938526484
2820.7,-0.0012072475794970674
2816.71,-0.0008442204430031234
2812.71,-0.00041524781736551424
2808.71,-0.00024819565271912364
2804.71,-0.0004469871627243592
2800.72,-0.0008617140736450182
2796.72,-0.00135793003055631
2792.72,-0.0018361575948339195
2788.72,-0.0020568355978032005
2784.73,-0.0017907725690734276
2780.73,-0.0012105905498741775
2776.73,-0.0008464050973662651
2772.73,-0.0009893786567758396
2768.74,-0.0013310582047699822
2764.74,-0.0014048099918114209
2760.74,-0.0012270869129157606
2756.74,-0.0012374532944157493
2752.74,-0.001644806988497873
2748.75,-0.00212732563090264
2744.75,-0.002242231272547294
2740.75,-0.0019510765617194949
2736.75,-0.0016299746508750127
2732.76,-0.0016134186182767342
2728.76,-0.0018803144938299267
2724.76,-0.0021645524306197227
2720.76,-0.002250718873787591
2716.77,-0.002108159995816167
2712.77,-0.0018101190110754977
2708.77,-0.0014461124230571063
2704.77,-0.0011192014590556479
2700.78,-0.0009747029714536217
2696.78,-0.0011273796971198744
2692.78,-0.0015055399480143946
2688.78,-0.0018363413801483677
2684.79,-0.0018585992655547042
2680.79,-0.0015556515782878186
2676.79,-0.0011539542324821622
2672.79,-0.0009002236740389191
2668.79,-0.0008581852840998907
2664.8,-0.000898451156447851
2660.8,-0.0008385724297063363
2656.8,-0.0006287973665760024
2652.8,-0.0004589071393967483
2648.81,-0.0006246183140916373
2644.81,-0.0011471164740218397
2640.81,-0.0015789256767503746
2636.81,-0.0014591789469672464
2632.82,-0.0009946028187153007
2628.82,-0.0009411866055523571
2624.82,-0.001603042349957141
2620.82,-0.0023262125798686403
2616.83,-0.0023830011338768792
2612.83,-0.002002057333573513
2608.83,-0.0019696364953841797
2604.83,-0.002356269593168238
2600.84,-0.0024081550584399516
2596.84,-0.0018240400056828254
2592.84,-0.0013623061024915454
2588.84,-0.0017371745211217187
2584.84,-0.0027571258171185803
2580.85,-0.0037189140466263792
2576.85,-0.004069813289723896
2572.85,-0.0034910308092197763
2568.85,-0.0019131246546780264
2564.86,5.071222432762668e-05
2560.86,0.0012480915248679122
2556.86,0.0011444406735135572
2552.86,0.00021922573425501923
2548.87,-0.0008719161282634384
2544.87,-0.0019092684320944416
2540.87,-0.0028033941256949534
2536.87,-0.0034113381125966016
2532.88,-0.0038592706790094304
2528.88,-0.004399599987323691
2524.88,-0.004736479316166162
2520.88,-0.0041942587978664415
2516.89,-0.0029906929961768893
2512.89,-0.002546637076517491
2508.89,-0.003511086754184807
2504.89,-0.004582626266130209
2500.89,-0.004121580354041614
2496.9,-0.00245183385960433
2492.9,-0.0010533870223311682
2488.9,-0.0004217951463666773
2484.9,0.00016990839905427972
2480.91,0.0010523473316044261
2476.91,0.0012728183354953945
2472.91,-0.00018025955616430281
2468.91,-0.0027507127601712617
2464.92,-0.004664962298246841
2460.92,-0.005152552851403959
2456.92,-0.004981805792421851
2452.92,-0.005160463585676649
2448.93,-0.0055406980348419
2444.93,-0.00482128413705222
2440.93,-0.002327985953228744
2436.93,0.0007523790885724177
2432.94,0.002536153038358554
2428.94,0.002159605157340721
2424.94,-4.697853195911474e-05
2420.94,-0.0028547907770622347
2416.95,-0.0046586741941827565
2412.95,-0.004599782257308483
2408.95,-0.0033197543326620215
2404.95,-0.002516131879319214
2400.95,-0.0030003991342768266
2396.96,-0.0037403073300568456
2392.96,-0.0035646429549950785
2388.96,-0.002805161783113516
2384.96,-0.002515992227645157
2380.97,-0.002784228195826686
2376.97,-0.002773301571895439
2372.97,-0.0022066502568802962
2368.97,-0.0018351523937677602
2364.98,-0.0019336491536105567
2360.98,-0.001627698764824455
2356.98,-0.0006524587115487607
2352.98,-0.00012012393891218669
2348.99,-0.0007724612859535282
2344.99,-0.0021695898924561454
2340.99,-0.0031120566975018963
2336.99,-0.002742467826467271
2333.0,-0.0015056087468216497
2329.0,-0.0004640210862143606
2325.0,-0.00033161623990028553
2321.0,-0.0012668117065945325
2317.0,-0.0028312444054758
2313.01,-0.004273995370495986
2309.01,-0.005414495762196551
2305.01,-0.006866796412628768
2301.01,-0.008615165660601559
2297.02,-0.009278564651088794
2293.02,-0.007708506064071709
2289.02,-0.004634292463114053
2285.02,-0.0017287774462537257
2281.03,7.631105120737761e-05
2277.03,0.00022566238942546085
2273.03,-0.0025893745638486303
2269.03,-0.007745411605981558
2265.04,-0.009443985154968025
2261.04,-0.00469018291262534
2257.04,0.0006302318915160708
2253.04,-0.0005787452767288833
2249.05,-0.00807283388047692
2245.05,-0.011255639050442438
2241.05,-0.004424752882578348
2237.05,0.00452149133256026
2233.05,0.006095123987072485
2229.06,-0.0004105369131387343
2225.06,-0.0061582706269844925
2221.06,-0.0076222340009491464
2217.06,-0.004380134986950512
2213.07,0.00015217619038983545
2209.07,0.0016343807212272792
2205.07,-0.0033356494389350363
2201.07,-0.0133536101964267
2197.08,-0.019316677169412898
2193.08,-0.018835602924099578
2189.08,-0.018132038696037096
2185.08,-0.01353237739224688
2181.09,0.0025424530827817407
2177.09,0.023519444420664105
2173.09,0.03073594939627439
2169.09,0.014217154288478886
2165.1,-0.007827575563141531
2161.1,-0.012714001381890296
2157.1,-0.0025430895601290656
2153.1,0.010531783101305738
2149.11,0.016616030412982055
2145.11,0.012233789851332109
2141.11,0.001167043693281913
2137.11,-0.014746512187930662
2133.11,-0.026720443068585703
2129.12,-0.026844773911718814
2125.12,-0.021525690658305285
2121.12,-0.016059900698609107
2117.12,-0.011833701412753311
2113.13,-0.009159181169883724
2109.13,-0.007820334244466251
2105.13,-0.005901545423419148
2101.13,-0.0019070978713020862
2097.14,0.0019180636751094816
2093.14,0.0031376565937226326
2089.14,0.00048379797060352675
2085.14,-0.00501666956382224
2081.15,-0.008828360708834823
2077.15,-0.010271858177315504
2073.15,-0.01270301793665918
2069.15,-0.01693841913674316
2065.16,-0.016218740623281113
2061.16,-0.012416352921891813
2057.16,-0.009088005861460493
2053.16,-0.008343795947142931
2049.16,-0.010551147480574148
2045.17,-0.007944009437334284
2041.17,-0.0020024457168356337
2037.17,-0.011909873600504849
2033.17,-0.02218871697458147
2029.18,-0.01852902034847931
2025.18,0.01097778439907816
2021.18,0.032907208161389076
2017.18,0.029890211181388904
2013.19,0.012405999951280796
2009.19,-0.013101571592039367
2005.19,-0.025625581770227068
2001.19,-0.021288023860685994
1997.2,-0.017224665238669307
1993.2,-0.008663128170032106
1989.2,0.0031769199275544515
1985.2,0.008917810940276875
1981.21,0.006076335105018716
1977.21,-0.0037408320221979244
1973.21,-0.0027806221694608086
1969.21,0.00939454991439777
1965.21,0.014432173347205857
1961.22,0.011276473981310733
1957.22,0.011521066856780593
1953.22,0.016049071447234147
1949.22,0.016478023872908917
1945.23,0.012219753437682886
1941.23,0.004561844604803405
1937.23,-0.00011437981536892201
1933.23,-0.004268803499480745
1929.24,-0.008513042682825772
1925.24,-0.008491833805717478
1921.24,-0.005269466224333763
1917.24,-0.001808804873709079
1913.25,0.0006450126320179301
1909.25,0.0012207147992402444
1905.25,0.0008796946732123861
1901.25,0.00038645229368672296
1897.26,-0.00019298027833958718
1893.26,-0.00044472489856131126
1889.26,-0.00045054640892084555
1885.26,-0.000616760976982248
1881.26,-0.0005529185771344787
1877.27,0.0003462042176044598
1873.27,0.0016388646741627173
1869.27,0.0022599906941836853
1865.27,0.001404160430123762
1861.28,-0.0005789801171877494
1857.28,-0.002790384964483462
1853.28,-0.004621888896208677
1849.28,-0.0050281104978719
1845.29,-0.003589861626077809
1841.29,-0.0018912330288191215
1837.29,-0.0013366692354105046
1833.29,-0.0018310983106272249
1829.3,-0.002444142668060866
1825.3,-0.002765624602828454
1821.3,-0.003007921285220315
1817.3,-0.0030267548261536845
1813.31,-0.0024618251154026045
1809.31,-0.0015480449121946785
1805.31,-0.0009377177944482685
1801.31,-0.0010178827860473757
1797.32,-0.0015731493508369383
1793.32,-0.0021072272072342824
1789.32,-0.0024315731384665753
1785.32,-0.002626723954347875
1781.32,-0.002763494948403657
1777.33,-0.002852699544546277
1773.33,-0.0028609188597707425
1769.33,-0.0027499775295064554
1765.33,-0.002629822826400585
1761.34,-0.002680345432186639
1757.34,-0.002870179241299241
1753.34,-0.0029049995103308628
1749.34,-0.002617304678517217
1745.35,-0.0023270322172171958
1741.35,-0.0023612475519322524
1737.35,-0.0026072492675602026
1733.35,-0.002731849549255666
1729.36,-0.0027646661834971617
1725.36,-0.0029527778030046226
1721.36,-0.003270563045988498
1717.36,-0.003444382674821617
1713.37,-0.0034402084377228156
1709.37,-0.003452951125492256
1705.37,-0.0033856417111457933
1701.37,-0.002967323267465665
1697.37,-0.0024509118244264265
1693.38,-0.00233543627011076
1689.38,-0.0025361666683807104
1685.38,-0.0026509606997231114
1681.38,-0.0026125371654973106
1677.39,-0.002706945241061361
1673.39,-0.002898237535485007
1669.39,-0.002801367972065638
1665.39,-0.002428756044370012
1661.4,-0.0022650201739431285
1657.4,-0.0025634582386315622
1653.4,-0.0029351769522652704
1649.4,-0.0028240357242159965
1645.41,-0.0024763314987827707
1641.41,-0.0023330085360818583
1637.41,-0.002289920247802656
1633.41,-0.0020676551908160724
1629.42,-0.0017678535131587002
1625.42,-0.0016946615886761255
1621.42,-0.0018400234072670192
1617.42,-0.0018810727008390681
1613.42,-0.0016605316777565326
1609.43,-0.0013548073948109972
1605.43,-0.0011469590029571726
1601.43,-0.0010408445984187262
1597.43,-0.0009444029782619646
1593.44,-0.0008260050350564315
1589.44,-0.0007899332397444717
1585.44,-0.0009907927180892277
1581.44,-0.0014561812911536185
1577.45,-0.0019751944565085115
1573.45,-0.0022725330178549395
1569.45,-0.0023968112510200433
1565.45,-0.002613480447038731
1561.46,-0.0029198444938082664
1557.46,-0.002965653543367138
1553.46,-0.002762465206070874
1549.46,-0.002767792874914489
1545.47,-0.0031628983520877035
1541.47,-0.0035747108431038307
1537.47,-0.0035473337318384546
1533.47,-0.0033845813740251253
1529.47,-0.0034988569171589016
1525.48,-0.003815169836360878
1521.48,-0.003998225866338919
1517.48,-0.004020930918539834
1513.48,-0.004087549651438737
1509.49,-0.004081801031865493
1505.49,-0.003766887772120044
1501.49,-0.003342205435193931
1497.49,-0.0030957170673788885
1493.5,-0.0029196026334584128
1489.5,-0.0025757541802630944
1485.5,-0.0021817102198577673
1481.5,-0.0020314680655183896
1477.51,-0.0021220402285858937
1473.51,-0.0021268603615793294
1469.51,-0.0018865220161996838
1465.51,-0.0017060899861149287
1461.52,-0.00183836506619221
1457.52,-0.0020549956620730023
1453.52,-0.001932624465271093
1449.52,-0.0015698939282745242
1445.53,-0.0013509696183281452
1441.53,-0.0014128779382242091
1437.53,-0.0015761378478660556
1433.53,-0.0016382061715199982
1429.53,-0.0016668363757398289
1425.54,-0.0017887230240876087
1421.54,-0.0018998190413619719
1417.54,-0.001798534736917054
1413.54,-0.0015452142284578328
1409.55,-0.0013774651056443002
1405.55,-0.001370944549572517
1401.55,-0.0013667914326228893
1397.55,-0.0012326007735318843
1393.56,-0.001099449475732193
1389.56,-0.0011612714740609216
1385.56,-0.0013591649105088905
1381.56,-0.0014841578309844965
1377.57,-0.0014668737157857137
1373.57,-0.0014311132427044608
1369.57,-0.001468032145003148
1365.57,-0.0014856747055715341
1361.58,-0.0013633194778704604
1357.58,-0.0011549259337244667
1353.58,-0.0010248449215595004
1349.58,-0.0010414237235840838
1345.58,-0.0011262478549684503
1341.59,-0.0011400833717937588
1337.59,-0.0010117507155474308
1333.59,-0.0008151575371805172
1329.59,-0.0007039853625033353
1325.6,-0.0007654962847925575
1321.6,-0.0009254647727797115
1317.6,-0.0010178132847129529
1313.6,-0.0009680364493294977
1309.61,-0.0008553223759843136
1305.61,-0.0007778837152301116
1301.61,-0.0007395109178081562
1297.61,-0.0006983335645894652
1293.62,-0.0006555705520157584
1289.62,-0.0006486419504644451
1285.62,-0.0006870352750356918
1281.62,-0.0007391154791046313
1277.63,-0.000769997694884177
1273.63,-0.0007708525680451292
1269.63,-0.0007569523198637063
1265.63,-0.0007425768561001362
1261.63,-0.0007145994200200289
1257.64,-0.0006476490712026449
1253.64,-0.000559845109094738
1249.64,-0.0005146898901349362
1245.64,-0.0005371062733211241
1241.65,-0.0005680547161033048
1237.65,-0.0005515161743609185
1233.65,-0.0005246081968497082
1229.65,-0.000553373112549182
1225.66,-0.0006185061983022259
1221.66,-0.0006607328027357982
1217.66,-0.0007065980356041187
1213.66,-0.0008312169587075433
1209.67,-0.0009968043194877672
1205.67,-0.0010547000267686533
1201.67,-0.0009420596356379811
1197.67,-0.000772417210551502
1193.68,-0.0006812798390750184
1189.68,-0.0006709635875445766
1185.68,-0.0006630919175447085
1181.68,-0.0006173922540045629
1177.68,-0.0005420411842590128
1173.69,-0.0004607981409121625
1169.69,-0.0004296350039048351
1165.69,-0.0005162153152253499
1161.69,-0.000694087184979198
1157.7,-0.0008174554735908337
1153.7,-0.0007700336757381988
1149.7,-0.0006015345943386672
1145.7,-0.0004628491721736262
1141.71,-0.0004433023105182475
1137.71,-0.0005247146096268502
1133.71,-0.0006372796172701554
1129.71,-0.0006974353857960578
1125.72,-0.0006376243640233225
1121.72,-0.0004756210727728376
1117.72,-0.00033723333219453207
1113.72,-0.0003358433779049859
1109.73,-0.0004453652781370609
1105.73,-0.0005530657571673268
1101.73,-0.0006066789156499722
1097.73,-0.0006382907089843676
1093.74,-0.0006646132840318623
1089.74,-0.0006586503157555735
1085.74,-0.0006267894828093371
1081.74,-0.0006293229634204327
1077.74,-0.0006885304598083602
1073.75,-0.000728194337285891
1069.75,-0.0006555481608439643
1065.75,-0.0004885379530793177
1061.75,-0.00035173919168003925
1057.76,-0.00034515724045363987
1053.76,-0.00045122191203286283
1049.76,-0.0005897452734793898
1045.76,-0.0007357751734131198
1041.77,-0.0009170146212849307
1037.77,-0.0010985363385862894
1033.77,-0.0011563599756929997
1029.77,-0.001012906613423956
1025.78,-0.0007400043489808788
1021.78,-0.00047676564552313455
1017.78,-0.00029581341003836976
1013.78,-0.00021213885419103188
1009.79,-0.0002533187975967124
1005.79,-0.0004085752922790792
1001.79,-0.0005578552157122731
997.79,-0.0005769717045804718
993.79,-0.0004958107294034461
989.8,-0.00045843200845293496
985.8,-0.0005293200404746156
981.8,-0.0006321081497059519
977.8,-0.0006640049857973168
973.81,-0.0005749319893197033
969.81,-0.0003735229730883267
965.81,-0.00016628397893715864
961.81,-0.00014524550037830556
957.82,-0.000381611896922993
953.82,-0.0006514240080797277
949.82,-0.0006635676641772401
945.82,-0.0004450410942403734
941.83,-0.0003165216576482327
937.83,-0.0004610584633870672
933.83,-0.0007412054955279381
929.83,-0.0009825575348893253
925.84,-0.0011860954569943567
921.84,-0.0013860799722148808
917.84,-0.0015070991592561983
913.84,-0.0014789440246118822
909.84,-0.001317137904910057
905.85,-0.0009762404306026492
901.85,-0.0003041331576702644
897.85,0.000690194557742013
893.85,0.0016870031643750577
889.86,0.0023161600008171413
885.86,0.002347197861472343
881.86,0.0017383349620823567
877.86,0.0007819330668791065
873.87,7.76183628321532e-05
869.87,9.531486061937145e-06
865.87,0.00032866076344638585
861.87,0.0005838846817642779
857.88,0.000775480308809305
853.88,0.0009213824788217507
849.88,0.0005135343855983683
845.88,-0.0006267574452915962
841.89,-0.001331840083024052
837.89,-0.000368286359105223
833.89,0.0012557533163698876
829.89,0.0010021530070351767
825.89,-0.0010943092035065772
821.9,-0.0023656219057503276
817.9,-0.0015956210581482809
813.9,-0.0006985537919127231
809.9,-0.001419685940535887
805.91,-0.002055540161158248
801.91,6.803457998347084e-05
797.91,0.0035643733016307265
793.91,0.005165942921388566
789.92,0.0043067193433747614
785.92,0.0025536196164691405
781.92,0.0014874701370913973
777.92,0.0015318875036860068
773.93,0.0025042074373770335
769.93,0.0028693725772679043
765.93,0.0005969747032293742
761.93,-0.00187887782735317
757.94,0.002846597610806901
753.94,0.013401882951528447
749.94,0.015273048987672603
745.94,0.008247428048702878
741.95,-0.0038792287875709115
737.95,-0.02284393644542197
733.95,-0.04298769914858223
729.95,-0.0674874734835505
725.95,-0.09319201342823269
721.96,-0.08789049727459712
717.96,-0.06474171639673224
713.96,-0.028821923862923867
709.96,-0.00923806454648323
705.97,-0.005469194661103524
701.97,0.03352453439666984
697.97,0.0740247560369963
693.97,0.11176143932757178
689.98,0.15752073048350523
685.98,0.21294648049749462
681.98,0.16607654095413885
677.98,0.09703782091390044
673.99,-0.006158162591844939
669.99,0.029432709729176675
665.99,-0.12394236799052767
661.99,-0.06441565769416555
658.0,-0.011061209084341786
654.0,-0.2999004558909586
650.0,-0.2563929475884143
